Data from JAZcentrevisible_14-20-14-165.txt Node
Date: Fri Jan 11 14:20:14 CET 2019
User: Mistral4
Spectrometer: JAZA2312
Trigger mode: 0
Integration Time (sec): 1.000000E0
Scans to average: 1
Electric dark correction enabled: true
Nonlinearity correction enabled: false
Boxcar width: 0
XAxis mode: Wavelengths
Number of Pixels in Spectrum: 2048
>>>>>Begin Spectral Data<<<<<
521.614	-84.14
521.728	-84.14
521.842	-84.14
521.955	-150.38
522.069	-157.48
522.183	-6.06
522.297	95.67
522.41	1.04
522.524	1.04
522.638	-36.82
522.751	105.13
522.865	3.4
522.979	-55.75
523.092	10.5
523.206	95.67
523.319	17.6
523.433	10.5
523.546	150.09
523.66	27.06
523.773	-84.14
523.887	-100.7
524	-22.62
524.113	24.69
524.227	-34.45
524.34	1910.3
524.453	7259.57
524.566	7455.94
524.68	7415.72
524.793	7205.15
524.906	7183.86
525.019	7493.79
525.132	7517.45
525.245	7465.4
525.358	7560.04
525.471	7458.3
525.584	7515.08
525.697	7463.03
525.81	7635.74
525.923	7548.21
526.036	7583.69
526.149	7638.11
526.262	7616.82
526.375	7869.97
526.487	7406.25
526.6	7510.35
526.713	7633.38
526.826	7796.62
526.938	7782.43
527.051	7777.7
527.164	7756.4
527.276	7981.16
527.389	7813.19
527.501	7685.43
527.614	7955.14
527.727	7945.68
527.839	8021.38
527.951	7808.45
528.064	8016.65
528.176	7917.28
528.289	7919.65
528.401	8016.65
528.513	7635.74
528.626	7957.5
528.738	7697.26
528.85	8054.51
528.963	7926.75
529.075	8156.24
529.187	7985.9
529.299	7940.94
529.411	7806.09
529.523	7988.26
529.635	8014.29
529.747	8125.48
529.86	8253.24
529.972	8066.34
530.084	7938.58
530.195	7853.41
530.307	8127.85
530.419	7886.53
530.531	8262.7
530.643	8203.56
530.755	8267.44
530.867	8099.46
530.978	8196.46
531.09	8120.75
531.202	8224.85
531.314	8019.02
531.425	8016.65
531.537	8281.63
531.649	7978.8
531.76	8089.99
531.872	8191.73
531.983	8063.97
532.095	8345.51
532.206	8198.82
532.318	8354.97
532.429	8357.34
532.541	8248.51
532.652	8281.63
532.763	8362.07
532.875	7914.92
532.986	8052.14
533.097	8153.87
533.209	8430.68
533.32	8097.09
533.431	8191.73
533.542	8146.78
533.653	8369.17
533.765	8305.29
533.876	8485.1
533.987	8369.17
534.098	8430.68
534.209	8331.31
534.32	8354.97
534.431	8205.92
534.542	8641.25
534.653	8470.9
534.764	8501.66
534.874	8383.36
534.985	8343.14
535.096	8712.22
535.207	8295.83
535.318	8395.19
535.429	8366.8
535.539	8584.46
535.65	8395.19
535.761	8565.54
535.871	8615.22
535.982	8527.68
536.092	8525.32
536.203	8726.42
536.314	8336.05
536.424	8373.9
536.535	8496.93
536.645	8411.75
536.756	8475.63
536.866	8305.29
536.976	8773.73
537.087	8525.32
537.197	8518.22
537.307	8354.97
537.418	8629.42
537.528	8518.22
537.638	8546.61
537.748	8397.56
537.859	8619.95
537.969	8364.44
538.079	8402.29
538.189	8686.2
538.299	8459.07
538.409	8676.73
538.519	8428.32
538.629	8608.12
538.739	8712.22
538.849	8667.27
538.959	8511.12
539.069	8667.27
539.179	8896.76
539.289	8887.3
539.399	8612.85
539.508	8596.29
539.618	8631.78
539.728	8589.2
539.838	8835.25
539.947	8787.93
540.057	8690.93
540.167	8660.17
540.276	8679.1
540.386	8660.17
540.495	8861.27
540.605	8591.56
540.715	8832.88
540.824	8657.81
540.933	8769
541.043	8655.44
541.152	9033.98
541.262	8629.42
541.371	8747.71
541.48	8785.56
541.59	8896.76
541.699	8873.1
541.808	8733.51
541.918	9171.2
542.027	8906.22
542.136	8785.56
542.245	8785.56
542.354	8974.83
542.463	8780.83
542.573	8863.64
542.682	8894.39
542.791	8828.15
542.9	8929.88
543.009	8915.69
543.118	8795.03
543.227	8858.91
543.335	9090.76
543.444	9180.67
543.553	8809.22
543.662	9015.05
543.771	9133.35
543.88	8993.76
543.988	8823.42
544.097	8963.01
544.206	8851.81
544.314	9100.23
544.423	8877.83
544.532	9192.5
544.64	9041.08
544.749	8839.98
544.857	8813.95
544.966	8828.15
545.075	8849.44
545.183	9048.18
545.291	9197.23
545.4	8731.15
545.508	8799.76
545.617	8967.74
545.725	8740.61
545.833	8944.08
545.942	8873.1
546.05	9043.45
546.158	9284.77
546.266	9294.23
546.375	9057.64
546.483	8948.81
546.591	9102.59
546.699	9227.98
546.807	9145.18
546.915	8989.03
547.023	9244.55
547.131	9121.52
547.239	9455.11
547.347	9107.32
547.455	9093.13
547.563	9043.45
547.671	9175.94
547.779	9183.03
547.887	9199.59
547.994	8989.03
548.102	9168.84
548.21	9159.37
548.318	9282.4
548.425	9201.96
548.533	9218.52
548.641	9379.4
548.748	9355.74
548.856	9339.18
548.963	9549.74
549.071	9237.45
549.179	9443.28
549.286	9211.42
549.394	9272.94
549.501	9166.47
549.608	9381.77
549.716	9317.89
549.823	9438.55
549.931	9277.67
550.038	9244.55
550.145	9580.5
550.252	9209.06
550.36	9353.38
550.467	9372.3
550.574	9218.52
550.681	9280.03
550.788	9502.43
550.896	9589.96
551.003	9384.13
551.11	9270.57
551.217	9303.69
551.324	9476.4
551.431	9530.82
551.538	9414.89
551.645	9381.77
551.752	9405.43
551.858	9535.55
551.965	9691.7
552.072	9504.79
552.179	9537.92
552.286	9668.04
552.392	9535.55
552.499	9268.2
552.606	9547.38
552.713	9433.82
552.819	9511.89
552.926	9492.96
553.032	9630.18
553.139	9613.62
553.246	9724.82
553.352	9651.48
553.459	9388.86
553.565	9594.7
553.672	9672.77
553.778	9521.35
553.884	9705.89
553.991	9663.31
554.097	9760.31
554.203	9717.72
554.31	9743.75
554.416	9604.16
554.522	9495.33
554.629	9757.94
554.735	9772.14
554.841	9448.01
554.947	9476.4
555.053	9708.26
555.159	9746.11
555.265	10832.05
555.371	9843.11
555.477	9748.48
555.583	12211.36
555.689	9968.51
555.795	9710.62
555.901	10044.21
556.007	9937.75
556.113	9731.92
556.219	10041.85
556.325	9767.41
556.43	9757.94
556.536	9608.89
556.642	9869.14
556.748	9717.72
556.853	9869.14
556.959	9795.8
557.065	9760.31
557.17	9698.8
557.276	9970.87
557.381	9880.97
557.487	9831.29
557.592	9918.82
557.698	10001.63
557.803	9774.5
557.909	9937.75
558.014	9980.34
558.119	9791.07
558.225	10086.8
558.33	10044.21
558.435	10115.19
558.541	10030.02
558.646	10034.75
558.751	10183.8
558.856	9963.77
558.962	10006.36
559.067	10006.36
559.172	9857.31
559.277	10134.12
559.382	10048.95
559.487	9959.04
559.592	10110.46
559.697	10065.51
559.802	10056.04
559.907	10138.85
560.012	10110.46
560.117	10245.31
560.222	10101
560.327	10323.39
560.431	10198
560.536	10136.48
560.641	9973.24
560.746	10337.58
560.85	9944.85
560.955	10295
561.06	10138.85
561.164	10342.32
561.269	10183.8
561.373	9994.53
561.478	10351.78
561.583	10221.66
561.687	10387.27
561.792	10304.46
561.896	10401.46
562	10569.44
562.105	10493.73
562.209	10401.46
562.314	10399.1
562.418	10373.07
562.522	10276.07
562.627	10325.75
562.731	10574.17
562.835	10261.88
562.939	10325.75
563.043	10160.14
563.148	10311.56
563.252	10467.71
563.356	10550.51
563.46	10564.71
563.564	10349.41
563.668	10602.56
563.772	10406.2
563.876	10432.22
563.98	10365.97
564.084	10647.52
564.188	10394.37
564.291	10410.93
564.395	10604.93
564.499	10597.83
564.603	10720.86
564.707	10623.86
564.81	10578.9
564.914	10576.54
565.018	10418.02
565.121	10630.95
565.225	10749.25
565.329	10614.39
565.432	10458.24
565.536	10753.98
565.639	10635.69
565.743	10503.2
565.846	10642.78
565.95	10720.86
566.053	10656.98
566.157	10690.1
566.26	10604.93
566.363	10645.15
566.467	10839.15
566.57	10410.93
566.673	10649.88
566.777	10820.22
566.88	10697.2
566.983	10727.96
567.086	10735.05
567.189	10529.22
567.292	10891.2
567.396	10519.76
567.499	10623.86
567.602	10569.44
567.705	10770.54
567.808	10304.46
567.911	10675.91
568.014	10633.32
568.117	10654.61
568.219	10590.73
568.322	10595.47
568.425	10628.59
568.528	10642.78
568.631	10609.66
568.734	10808.4
568.836	10517.39
568.939	10543.42
569.042	10467.71
569.144	10649.88
569.247	10567.08
569.35	10687.74
569.452	10718.49
569.555	10765.81
569.657	10784.74
569.76	10794.2
569.862	10515.03
569.965	10732.69
570.067	10512.66
570.17	10723.22
570.272	10862.81
570.374	10929.06
570.477	10753.98
570.579	10879.37
570.681	10515.03
570.784	10775.27
570.886	10571.81
570.988	10692.47
571.09	10616.76
571.192	11009.5
571.294	10929.06
571.397	10796.57
571.499	10817.86
571.601	10586
571.703	10588.37
571.805	10671.17
571.907	10789.47
572.009	10858.08
572.11	10784.74
572.212	10820.22
572.314	10829.69
572.416	10834.42
572.518	10791.83
572.62	10680.64
572.721	10782.37
572.823	10850.98
572.925	10955.08
573.027	10808.4
573.128	11037.89
573.23	11153.81
573.332	10978.74
573.433	11127.79
573.535	11279.21
573.636	11160.91
573.738	11371.48
573.839	11139.62
573.941	11272.11
574.042	11444.82
574.144	11293.4
574.245	11366.74
574.346	11182.21
574.448	11160.91
574.549	11101.77
574.65	11390.4
574.751	11574.94
574.853	10974.01
574.954	11347.82
575.055	11118.33
575.156	11153.81
575.257	11352.55
575.358	11447.18
575.46	11108.86
575.561	11123.06
575.662	11184.57
575.763	11246.08
575.864	11094.67
575.965	11333.62
576.065	11075.74
576.166	11144.35
576.267	11111.23
576.368	11056.81
576.469	11030.79
576.57	11115.96
576.671	11056.81
576.771	11175.11
576.872	10872.27
576.973	11026.06
577.073	10898.3
577.174	11123.06
577.275	11205.86
577.375	11127.79
577.476	11120.69
577.576	11073.37
577.677	10969.28
577.777	10959.81
577.878	11123.06
577.978	10992.93
578.079	11108.86
578.179	11023.69
578.279	11345.45
578.38	11056.81
578.48	10988.2
578.58	11080.47
578.681	11229.52
578.781	11149.08
578.881	10966.91
578.981	10914.86
579.081	10962.18
579.181	11056.81
579.282	10888.84
579.382	11113.59
579.482	11300.5
579.582	11194.03
579.682	11071.01
579.782	11021.32
579.882	10974.01
579.982	10895.93
580.081	11186.94
580.181	10817.86
580.281	11125.42
580.381	10981.1
580.481	10900.66
580.581	10877.01
580.68	10929.06
580.78	11248.45
580.88	11307.6
580.979	10910.13
581.079	10983.47
581.179	11281.57
581.278	11089.94
581.378	10640.42
581.477	11054.45
581.577	10974.01
581.676	10853.35
581.776	10917.23
581.875	11205.86
581.975	11123.06
582.074	10806.03
582.173	11364.38
582.273	10931.42
582.372	11007.13
582.471	10983.47
582.571	11099.4
582.67	10931.42
582.769	11080.47
582.868	11134.89
582.967	11191.67
583.067	11768.94
583.166	11014.23
583.265	11056.81
583.364	10988.2
583.463	11288.67
583.562	10929.06
583.661	10782.37
583.76	10919.59
583.859	11052.08
583.958	11052.08
584.056	11014.23
584.155	10839.15
584.254	10742.15
584.353	10926.69
584.452	10900.66
584.55	10976.37
584.649	10938.52
584.748	10962.18
584.847	10962.18
584.945	11071.01
585.044	10827.32
585.142	11217.69
585.241	11068.64
585.34	10697.2
585.438	10869.91
585.537	10893.57
585.635	11137.25
585.733	10718.49
585.832	10803.66
585.93	10966.91
586.029	10865.18
586.127	11075.74
586.225	10758.71
586.324	10706.66
586.422	10898.3
586.52	10988.2
586.618	10983.47
586.716	10957.45
586.815	10945.62
586.913	10888.84
587.011	10723.22
587.109	11052.08
587.207	10929.06
587.305	10900.66
587.403	10900.66
587.501	10929.06
587.599	10903.03
587.697	10787.1
587.795	10751.61
587.893	10699.56
587.991	10881.74
588.088	11007.13
588.186	11021.32
588.284	11106.5
588.382	10872.27
588.479	11028.42
588.577	11092.3
588.675	10612.03
588.772	11099.4
588.87	10924.32
588.968	10924.32
589.065	10985.84
589.163	11026.06
589.26	11004.76
589.358	11023.69
589.455	10694.83
589.553	10789.47
589.65	11127.79
589.748	11042.62
589.845	10933.79
589.942	10886.47
590.04	11030.79
590.137	11066.28
590.234	10798.93
590.331	11144.35
590.429	10926.69
590.526	10758.71
590.623	11087.57
590.72	10903.03
590.817	10917.23
590.914	11044.98
591.011	10988.2
591.108	10914.86
591.205	10924.32
591.302	10768.18
591.399	11175.11
591.496	11108.86
591.593	11061.55
591.69	10905.4
591.787	11071.01
591.884	11000.03
591.98	10841.52
592.077	10912.49
592.174	10813.13
592.271	11168.01
592.367	10931.42
592.464	11215.33
592.561	11127.79
592.657	11026.06
592.754	11248.45
592.851	11151.45
592.947	10976.37
593.044	10926.69
593.14	10933.79
593.237	10988.2
593.333	11011.86
593.429	10981.1
593.526	11134.89
593.622	10957.45
593.719	11125.42
593.815	10862.81
593.911	10716.13
594.007	11163.28
594.104	10964.54
594.2	10978.74
594.296	11007.13
594.392	11127.79
594.488	10917.23
594.584	11004.76
594.681	10959.81
594.777	11537.09
594.873	10988.2
594.969	11340.72
595.065	11269.74
595.161	10917.23
595.257	11165.64
595.352	10841.52
595.448	11130.16
595.544	11253.18
595.64	11246.08
595.736	11153.81
595.832	11236.62
595.927	11191.67
596.023	11177.47
596.119	11137.25
596.214	11345.45
596.31	11078.11
596.406	11276.84
596.501	11390.4
596.597	11212.96
596.692	10997.67
596.788	11021.32
596.884	11087.57
596.979	11099.4
597.074	11364.38
597.17	11392.77
597.265	11295.77
597.361	11028.42
597.456	11480.31
597.551	11085.2
597.647	11362.01
597.742	11444.82
597.837	10924.32
597.932	11276.84
598.027	11182.21
598.123	11335.99
598.218	11205.86
598.313	10978.74
598.408	11473.21
598.503	11092.3
598.598	11177.47
598.693	11402.23
598.788	11300.5
598.883	11501.6
598.978	11153.81
599.073	11132.52
599.168	11354.91
599.263	11305.23
599.357	11425.89
599.452	11461.38
599.547	11177.47
599.642	11376.21
599.737	11508.7
599.831	11089.94
599.926	11236.62
600.021	11291.04
600.115	11499.23
600.21	11383.31
600.304	11357.28
600.399	11657.75
600.493	11520.53
600.588	11338.35
600.682	11276.84
600.777	11295.77
600.871	11276.84
600.966	11461.38
601.06	11184.57
601.154	11397.5
601.249	11274.47
601.343	11556.01
601.437	11321.79
601.532	11378.57
601.626	11728.72
601.72	11501.6
601.814	11622.26
601.908	11544.19
602.002	11255.55
602.096	11409.33
602.191	11496.87
602.285	11406.96
602.379	11388.04
602.473	11660.11
602.567	11482.67
602.66	11338.35
602.754	11466.11
602.848	11667.21
602.942	11671.94
603.036	11645.92
603.13	11470.84
603.224	11643.55
603.317	11570.21
603.411	11470.84
603.505	11298.13
603.598	11423.53
603.692	11681.41
603.786	11354.91
603.879	11435.35
603.973	11477.94
604.066	11671.94
604.16	11378.57
604.253	11269.74
604.347	11411.7
604.44	11653.02
604.534	11572.58
604.627	11605.7
604.721	11541.82
604.814	11643.55
604.907	11695.6
605.001	11851.75
605.094	11527.62
605.187	11605.7
605.28	11679.04
605.373	11783.14
605.467	11754.75
605.56	11432.99
605.653	11745.29
605.746	11712.16
605.839	11764.21
605.932	11603.33
606.025	11731.09
606.118	11494.5
606.211	11792.6
606.304	11773.68
606.397	11634.09
606.49	11785.51
606.583	11865.95
606.676	11738.19
606.768	11688.5
606.861	11745.29
606.954	11733.46
607.047	11702.7
607.139	12104.9
607.232	11823.36
607.325	11466.11
607.417	11660.11
607.51	11745.29
607.602	11671.94
607.695	11832.82
607.788	11844.65
607.88	12258.68
607.973	11546.55
608.065	11610.43
608.157	11813.9
608.25	11622.26
608.342	11662.48
608.435	11988.97
608.527	11726.36
608.619	11750.02
608.711	11527.62
608.804	11742.92
608.896	11461.38
608.988	11612.8
609.08	11752.38
609.172	11629.36
609.265	11669.58
609.357	11525.26
609.449	11761.85
609.541	12029.19
609.633	11790.24
609.725	11667.21
609.817	11548.92
609.909	11560.75
610.001	11799.7
610.092	11558.38
610.184	11712.16
610.276	11806.8
610.368	11745.29
610.46	11790.24
610.552	11768.94
610.643	11563.11
610.735	11653.02
610.827	12426.66
610.918	11605.7
611.01	11641.19
611.102	11529.99
611.193	11591.5
611.285	11764.21
611.376	11558.38
611.468	11600.97
611.559	11660.11
611.651	11688.5
611.742	11681.41
611.833	11475.57
611.925	11615.16
612.016	11553.65
612.108	11503.97
612.199	11839.92
612.29	11503.97
612.381	11520.53
612.473	11605.7
612.564	11499.23
612.655	11577.31
612.746	11645.92
612.837	11731.09
612.928	11591.5
613.019	11655.38
613.11	11513.43
613.201	11624.63
613.292	11671.94
613.383	11624.63
613.474	11520.53
613.565	11444.82
613.656	11643.55
613.747	11532.36
613.838	11421.16
613.929	11887.24
614.019	11463.75
614.11	11768.94
614.201	11752.38
614.292	11655.38
614.382	11605.7
614.473	11714.53
614.564	11650.65
614.654	11752.38
614.745	11548.92
614.835	11605.7
614.926	11707.43
615.016	11631.72
615.107	11891.97
615.197	11534.72
615.288	11295.77
615.378	11416.43
615.469	11302.87
615.559	12069.41
615.649	11506.33
615.74	11463.75
615.83	11435.35
615.92	11518.16
616.01	11499.23
616.101	11546.55
616.191	11584.41
616.281	11492.14
616.371	11605.7
616.461	11312.33
616.551	11570.21
616.641	11340.72
616.731	11716.9
616.821	11638.82
616.911	11544.19
617.001	11572.58
617.091	11392.77
617.181	11572.58
617.271	11641.19
617.361	11629.36
617.45	11373.84
617.54	11508.7
617.63	11891.97
617.72	11596.23
617.809	11442.45
617.899	11529.99
617.989	11354.91
618.078	11615.16
618.168	11425.89
618.258	11525.26
618.347	11345.45
618.437	11459.01
618.526	11563.11
618.616	11409.33
618.705	11570.21
618.795	11397.5
618.884	11312.33
618.973	11537.09
619.063	11338.35
619.152	11423.53
619.241	11380.94
619.331	11430.62
619.42	11335.99
619.509	11335.99
619.598	11236.62
619.688	11442.45
619.777	11388.04
619.866	11437.72
619.955	11319.43
620.044	11357.28
620.133	11175.11
620.222	11324.16
620.311	11300.5
620.4	11210.6
620.489	11236.62
620.578	11269.74
620.667	11430.62
620.756	11262.65
620.845	11319.43
620.933	11525.26
621.022	11137.25
621.111	11108.86
621.2	11220.06
621.288	11021.32
621.377	11324.16
621.466	11080.47
621.554	11265.01
621.643	11125.42
621.732	10910.13
621.82	11212.96
621.909	11461.38
621.997	11392.77
622.086	11411.7
622.174	11158.55
622.263	10974.01
622.351	11134.89
622.439	11056.81
622.528	11146.72
622.616	11482.67
622.704	11269.74
622.793	11196.4
622.881	11085.2
622.969	11236.62
623.057	10950.35
623.145	11248.45
623.234	11177.47
623.322	11092.3
623.41	11231.89
623.498	11179.84
623.586	10992.93
623.674	11236.62
623.762	10997.67
623.85	10952.71
623.938	10815.49
624.026	11168.01
624.114	10936.15
624.202	10697.2
624.289	11033.15
624.377	10921.96
624.465	11071.01
624.553	11182.21
624.641	11463.75
624.728	10810.76
624.816	11059.18
624.904	11262.65
624.991	10936.15
625.079	10751.61
625.166	11253.18
625.254	11087.57
625.342	10753.98
625.429	10716.13
625.517	10955.08
625.604	10952.71
625.691	10836.79
625.779	10824.96
625.866	10888.84
625.954	10907.76
626.041	10827.32
626.128	10912.49
626.216	10645.15
626.303	10789.47
626.39	10673.54
626.477	10716.13
626.564	10751.61
626.652	10971.64
626.739	10893.57
626.826	10945.62
626.913	10612.03
627	10768.18
627.087	10614.39
627.174	10725.59
627.261	10647.52
627.348	10526.86
627.435	10751.61
627.522	10912.49
627.609	10512.66
627.695	10647.52
627.782	11047.35
627.869	10434.59
627.956	10630.95
628.043	10496.1
628.129	10668.81
628.216	10590.73
628.303	10524.49
628.389	10668.81
628.476	10850.98
628.562	10427.49
628.649	10597.83
628.736	10803.66
628.822	10439.32
628.909	10761.08
628.995	10467.71
629.081	10460.61
629.168	10555.25
629.254	10467.71
629.341	10590.73
629.427	10455.88
629.513	10363.61
629.6	10848.62
629.686	10396.73
629.772	10278.44
629.858	10576.54
629.944	10517.39
630.031	10472.44
630.117	10458.24
630.203	10446.42
630.289	10555.25
630.375	10524.49
630.461	10302.1
630.547	10479.54
630.633	10316.29
630.719	10503.2
630.805	10593.1
630.891	10295
630.977	10174.34
631.062	10330.49
631.148	10349.41
631.234	10465.34
631.32	10763.44
631.406	10295
631.491	10429.85
631.577	10649.88
631.663	10396.73
631.748	10394.37
631.834	12521.3
631.92	10389.63
632.005	10387.27
632.091	10470.07
632.176	10292.63
632.262	10302.1
632.347	10432.22
632.433	10259.51
632.518	10439.32
632.603	10406.2
632.689	10259.51
632.774	10306.83
632.859	10117.56
632.945	10335.22
633.03	10096.26
633.115	10202.73
633.2	10432.22
633.286	10119.92
633.371	10418.02
633.456	10261.88
