Data from JAZrouge_14-20-14-165.txt Node
Date: Fri Jan 11 14:20:14 CET 2019
User: Mistral4
Spectrometer: JAZA2312
Trigger mode: 0
Integration Time (sec): 1.000000E0
Scans to average: 1
Electric dark correction enabled: true
Nonlinearity correction enabled: false
Boxcar width: 0
XAxis mode: Wavelengths
Number of Pixels in Spectrum: 2048
>>>>>Begin Spectral Data<<<<<
686.118	-107.74
686.292	-107.74
686.466	-107.74
686.64	-129.11
686.814	-95.87
686.988	44.22
687.161	-3.26
687.335	25.23
687.509	15.73
687.682	8.61
687.856	79.84
688.03	-10.39
688.203	51.35
688.377	70.34
688.55	25.23
688.724	-41.26
688.897	-10.39
689.071	77.47
689.244	20.48
689.418	44.22
689.591	-0.89
689.764	-17.51
689.938	29.98
690.111	-8.01
690.284	1967.53
690.457	6961.02
690.631	7184.22
690.804	6930.15
690.977	7053.62
691.15	6996.63
691.323	7077.36
691.496	7015.63
691.669	7058.37
691.842	7264.95
692.015	7065.49
692.188	6987.14
692.361	7067.87
692.533	6944.39
692.706	7091.61
692.879	7022.75
693.052	7260.2
693.225	7079.74
693.397	7207.96
693.57	7063.12
693.743	7086.86
693.915	6989.51
694.088	6885.03
694.26	7046.5
694.433	6899.28
694.605	7245.95
694.778	7108.23
694.95	7160.47
695.122	7101.11
695.295	7129.6
695.467	7025.13
695.639	7074.99
695.812	7131.98
695.984	7409.79
696.156	7122.48
696.328	7172.34
696.5	6982.39
696.673	7236.45
696.845	7143.85
697.017	7181.84
697.189	7374.17
697.361	7084.49
697.533	7260.2
697.705	7188.96
697.877	7198.46
698.048	7336.18
698.22	6925.4
698.392	6982.39
698.564	7141.47
698.736	7034.62
698.907	7169.97
699.079	7141.47
699.251	7229.33
699.422	7317.18
699.594	6987.14
699.765	7110.61
699.937	7048.87
700.108	7155.72
700.28	6951.52
700.451	7820.57
700.623	7245.95
700.794	7103.48
700.966	7198.46
701.137	7238.83
701.308	7169.97
701.479	7238.83
701.651	7112.98
701.822	7186.59
701.993	7291.07
702.164	7186.59
702.335	7466.78
702.506	7165.22
702.677	7390.79
702.848	7229.33
703.019	7179.47
703.19	7226.96
703.361	7162.84
703.532	7098.73
703.703	7307.69
703.874	7048.87
704.045	7238.83
704.215	7236.45
704.386	7257.82
704.557	7186.59
704.728	7143.85
704.898	7103.48
705.069	7378.92
705.239	7238.83
705.41	7250.7
705.58	7264.95
705.751	7535.63
705.921	7055.99
706.092	7255.45
706.262	7224.58
706.433	7340.93
706.603	7331.43
706.773	7262.57
706.944	7274.44
707.114	7457.28
707.284	7179.47
707.454	7333.81
707.624	7231.7
707.795	7134.35
707.965	7338.55
708.135	7345.68
708.305	7203.21
708.475	7302.94
708.645	7326.68
708.815	7300.56
708.985	7329.06
709.154	7212.71
709.324	7324.31
709.494	7253.07
709.664	7262.57
709.834	7433.53
710.003	7352.8
710.173	7212.71
710.343	7416.91
710.512	7302.94
710.682	7393.17
710.852	7139.1
711.021	7416.91
711.191	7374.17
711.36	7547.51
711.53	7507.14
711.699	7317.18
711.868	7122.48
712.038	7307.69
712.207	7526.14
712.376	7621.12
712.546	7305.31
712.715	7374.17
712.884	7419.29
713.053	7302.94
713.222	7409.79
713.392	7355.18
713.561	7196.09
713.73	7564.13
713.899	7248.33
714.068	7333.81
714.237	7670.98
714.406	7338.55
714.575	7317.18
714.743	7378.92
714.912	7507.14
715.081	7481.02
715.25	7402.67
715.419	7495.27
715.587	7378.92
715.756	7276.82
715.925	7628.24
716.093	7416.91
716.262	7583.12
716.43	7298.19
716.599	7364.67
716.767	7298.19
716.936	7367.05
717.104	7319.56
717.273	7557
717.441	7414.54
717.61	7566.5
717.778	7452.53
717.946	7542.76
718.114	7485.77
718.283	7464.4
718.451	7421.66
718.619	7402.67
718.787	7359.92
718.955	7257.82
719.123	7352.8
719.291	7414.54
719.459	7350.43
719.627	7136.73
719.795	7369.42
719.963	7397.92
720.131	7388.42
720.299	7312.44
720.467	7571.25
720.634	7561.75
720.802	7526.14
720.97	7435.91
721.138	7333.81
721.305	7450.15
721.473	7286.32
721.641	7416.91
721.808	7314.81
721.976	7250.7
722.143	7595
722.311	7288.69
722.478	7160.47
722.646	7281.57
722.813	7459.65
722.98	7528.51
723.148	7359.92
723.315	7293.44
723.482	7217.46
723.649	7298.19
723.817	7226.96
723.984	7283.94
724.151	7236.45
724.318	7362.3
724.485	7587.87
724.652	7371.8
724.819	7364.67
724.986	7435.91
725.153	7393.17
725.32	7526.14
725.487	8058.02
725.654	7319.56
725.821	7547.51
725.988	7369.42
726.154	7405.04
726.321	8117.38
726.488	7288.69
726.654	7179.47
726.821	7312.44
726.988	7376.55
727.154	7421.66
727.321	7283.94
727.487	7298.19
727.654	7345.68
727.82	7566.5
727.987	7383.67
728.153	7428.78
728.32	7300.56
728.486	7428.78
728.652	7381.29
728.818	7459.65
728.985	7378.92
729.151	7554.63
729.317	7716.09
729.483	7497.64
729.649	7509.52
729.815	7238.83
729.982	7464.4
730.148	7469.15
730.314	7784.95
730.48	7502.39
730.645	7457.28
730.811	7414.54
730.977	7509.52
731.143	7414.54
731.309	7630.61
731.475	7630.61
731.64	7535.63
731.806	7685.23
731.972	7519.01
732.137	7348.05
732.303	7471.52
732.469	7402.67
732.634	7519.01
732.8	7457.28
732.965	7445.41
733.131	7476.27
733.296	7576
733.462	7388.42
733.627	7281.57
733.792	7333.81
733.958	7393.17
734.123	7348.05
734.288	7367.05
734.453	7516.64
734.619	7248.33
734.784	7509.52
734.949	7576
735.114	7500.02
735.279	7554.63
735.444	7497.64
735.609	7495.27
735.774	7367.05
735.939	7540.38
736.104	7298.19
736.269	7412.16
736.434	7578.37
736.598	7488.15
736.763	7616.37
736.928	7618.74
737.093	7478.65
737.257	7649.61
737.422	7281.57
737.587	7502.39
737.751	7288.69
737.916	7552.26
738.08	7625.86
738.245	7526.14
738.409	7509.52
738.574	7419.29
738.738	7495.27
738.903	7597.37
739.067	7295.81
739.231	7397.92
739.396	7656.73
739.56	7545.13
739.724	7557
739.888	7526.14
740.052	7661.48
740.217	7424.04
740.381	7388.42
740.545	7443.03
740.709	7357.55
740.873	7716.09
741.037	7352.8
741.201	7288.69
741.365	7326.68
741.528	7521.39
741.692	7428.78
741.856	7478.65
742.02	7355.18
742.184	7300.56
742.347	7454.9
742.511	7374.17
742.675	7274.44
742.838	7447.78
743.002	7452.53
743.166	7452.53
743.329	7305.31
743.493	7507.14
743.656	7295.81
743.82	7440.66
743.983	7478.65
744.146	7405.04
744.31	7262.57
744.473	7602.12
744.636	7573.63
744.8	7602.12
744.963	7492.89
745.126	7374.17
745.289	7314.81
745.452	7452.53
745.615	7488.15
745.778	7367.05
745.941	7416.91
746.104	7447.78
746.267	7117.73
746.43	7238.83
746.593	7324.31
746.756	7264.95
746.919	7131.98
747.082	7364.67
747.245	7288.69
747.407	7412.16
747.57	7324.31
747.733	7350.43
747.895	7466.78
748.058	7438.28
748.221	7402.67
748.383	7136.73
748.546	7400.29
748.708	7357.55
748.871	7485.77
749.033	7340.93
749.196	7307.69
749.358	7205.59
749.52	7364.67
749.683	7376.55
749.845	7476.27
750.007	7443.03
750.169	7191.34
750.332	7675.73
750.494	7186.59
750.656	7219.83
750.818	7198.46
750.98	7181.84
751.142	7352.8
751.304	7253.07
751.466	7172.34
751.628	7383.67
751.79	7160.47
751.952	7279.19
752.114	7257.82
752.275	7421.66
752.437	7196.09
752.599	7181.84
752.761	7253.07
752.922	7226.96
753.084	7226.96
753.246	7262.57
753.407	7129.6
753.569	7329.06
753.73	7267.32
753.892	7181.84
754.053	7181.84
754.215	7177.09
754.376	7326.68
754.537	6920.65
754.699	7243.58
754.86	7345.68
755.021	7188.96
755.183	7174.72
755.344	7357.55
755.505	7288.69
755.666	7091.61
755.827	7226.96
755.988	7241.2
756.149	7179.47
756.31	7219.83
756.471	7281.57
756.632	7371.8
756.793	7210.33
756.954	7167.59
757.115	7117.73
757.276	7013.25
757.437	7044.12
757.598	7198.46
757.758	7122.48
757.919	7219.83
758.08	7502.39
758.24	7077.36
758.401	7165.22
758.561	7248.33
758.722	6975.26
758.883	6956.27
759.043	7117.73
759.204	7153.35
759.364	7143.85
759.524	6906.4
759.685	7110.61
759.845	6963.39
760.005	7046.5
760.166	6961.02
760.326	6987.14
760.486	6887.41
760.646	7122.48
760.806	6984.76
760.966	6989.51
761.127	6873.16
761.287	7148.6
761.447	6944.39
761.607	7018
761.767	6977.64
761.926	7046.5
762.086	7029.88
762.246	7169.97
762.406	7039.37
762.566	7037
762.726	6939.65
762.885	7020.38
763.045	6742.57
763.205	7039.37
763.364	7013.25
763.524	7079.74
763.683	6842.29
763.843	6797.18
764.003	6942.02
764.162	6944.39
764.321	6858.91
764.481	6920.65
764.64	6820.92
764.8	6975.26
764.959	6835.17
765.118	6718.82
765.277	7008.51
765.437	6794.8
765.596	6868.41
765.755	6880.28
765.914	6896.91
766.073	6932.52
766.232	6797.18
766.391	6830.42
766.55	6740.19
766.709	6737.82
766.868	6761.56
767.027	6899.28
767.186	6839.92
767.345	6915.9
767.504	6813.8
767.663	6706.95
767.821	6906.4
767.98	6858.91
768.139	6915.9
768.297	6668.96
768.456	6699.83
768.615	6875.54
768.773	6747.32
768.932	6866.04
769.09	6735.44
769.249	6809.05
769.407	6706.95
769.565	6875.54
769.724	6685.58
769.882	6735.44
770.04	6695.08
770.199	6699.83
770.357	6775.81
770.515	6806.68
770.673	6630.97
770.831	6628.59
770.99	6778.18
771.148	6609.6
771.306	6671.33
771.464	6718.82
771.622	6756.81
771.78	6676.08
771.938	6657.09
772.095	6514.62
772.253	6668.96
772.411	6752.06
772.569	6545.49
772.727	6825.67
772.884	6685.58
773.042	6521.74
773.2	6616.72
773.357	6507.49
773.515	6785.31
773.673	6395.9
773.83	6766.31
773.988	6467.13
774.145	6654.71
774.303	6723.57
774.46	6498
774.617	6286.67
774.775	6540.74
774.932	6545.49
775.089	6554.98
775.247	6395.9
775.404	6659.46
775.561	6552.61
775.718	6604.85
775.875	6343.66
776.032	6692.7
776.189	6581.1
776.346	6388.77
776.503	6554.98
776.66	6528.87
776.817	6607.22
776.974	6531.24
777.131	6452.88
777.288	6372.15
777.445	6514.62
777.602	6398.27
777.758	6410.14
777.915	6545.49
778.072	6443.38
778.228	6557.36
778.385	6232.06
778.542	6445.76
778.698	6426.76
778.855	6457.63
779.011	6441.01
779.168	6457.63
779.324	6426.76
779.48	6286.67
779.637	6355.53
779.793	6341.28
779.949	6659.46
780.106	6194.07
780.262	6809.05
780.418	6543.11
780.574	6467.13
780.73	6384.02
780.886	6348.41
781.042	6490.87
781.199	6445.76
781.355	6379.27
781.511	6350.78
781.666	6452.88
781.822	6360.28
781.978	6469.5
782.134	6422.01
782.29	6407.77
782.446	6376.9
782.601	6412.52
782.757	6308.04
782.913	6474.25
783.069	6410.14
783.224	6148.95
783.38	6322.29
783.535	6205.94
783.691	6277.17
783.846	6792.43
784.002	6229.68
784.157	6431.51
784.313	6277.17
784.468	6296.17
784.623	6341.28
784.779	6291.42
784.934	6322.29
785.089	6315.16
785.244	6334.16
785.399	6336.53
785.555	6217.81
785.71	6101.46
785.865	6298.54
786.02	6189.32
786.175	6324.66
786.33	6065.85
786.485	6213.06
786.64	6248.68
786.795	6122.83
786.949	6110.96
787.104	6118.08
787.259	6391.15
787.414	6139.45
787.569	6072.97
787.723	6232.06
787.878	6296.17
788.033	6217.81
788.187	6063.47
788.342	6118.08
788.496	6134.71
788.651	6279.55
788.805	6044.48
788.96	6127.58
789.114	6293.79
789.268	6115.71
789.423	6141.83
789.577	6023.11
789.731	6334.16
789.886	6065.85
790.04	6198.82
790.194	5904.38
790.348	5959
790.502	6058.72
790.656	5864.02
790.81	6032.6
790.964	6621.47
791.118	6106.21
791.272	6113.34
791.426	6015.98
791.58	6020.73
791.734	5954.25
791.888	5868.77
792.042	6153.7
792.195	6099.09
792.349	6053.97
792.503	6213.06
792.656	6006.48
792.81	5864.02
792.964	6151.33
793.117	6037.35
793.271	5966.12
793.424	6196.44
793.578	6042.1
793.731	6068.22
793.885	5861.64
794.038	6239.18
794.191	5987.49
794.345	6201.19
794.498	5892.51
794.651	6080.09
794.804	6158.45
794.958	5780.91
795.111	6068.22
795.264	6108.59
795.417	5996.99
795.57	5961.37
795.723	6030.23
795.876	5875.89
796.029	6025.48
796.182	6008.86
796.335	5940
796.488	5963.74
796.64	6129.96
796.793	5904.38
796.946	5989.86
797.099	6030.23
797.251	5887.76
797.404	5899.63
797.557	5954.25
797.709	5911.51
797.862	6172.7
798.014	5866.39
798.167	6044.48
798.319	5937.63
798.472	5807.03
798.624	5999.36
798.777	5868.77
798.929	5847.4
799.081	5752.42
799.233	5849.77
799.386	5809.4
799.538	5897.26
799.69	5956.62
799.842	5826.03
799.994	5992.24
800.146	5726.3
800.298	5894.89
800.45	5764.29
800.602	5921
800.754	5726.3
800.906	5769.04
801.058	5647.94
801.21	5830.77
801.362	5916.26
801.514	5738.17
801.665	5685.93
801.817	5742.92
801.969	5864.02
802.121	5792.78
802.272	5864.02
802.424	5871.14
802.575	5695.43
802.727	5678.81
802.878	5612.32
803.03	5719.18
803.181	5619.45
803.333	5700.18
803.484	5797.53
803.635	5754.79
803.787	5783.29
803.938	5666.94
804.089	5845.02
804.24	5804.66
804.392	5602.83
804.543	6032.6
804.694	5526.84
804.845	5719.18
804.996	5600.45
805.147	5726.3
805.298	5807.03
805.449	5617.07
805.6	5745.29
805.751	5621.82
805.901	5771.41
806.052	5902.01
806.203	5702.55
806.354	5742.92
806.505	5947.12
806.655	5814.15
806.806	5643.19
806.957	5702.55
807.107	5783.29
807.258	5386.75
807.408	5664.56
807.559	5493.6
807.709	5538.72
807.86	5564.84
808.01	5541.09
808.16	5709.68
808.311	5685.93
808.461	5617.07
808.611	5576.71
808.761	5522.1
808.912	5621.82
809.062	5636.07
809.212	5529.22
809.362	5569.58
809.512	5695.43
809.662	5517.35
809.812	5650.32
809.962	5690.68
810.112	5678.81
810.262	5716.8
810.412	5804.66
810.562	5555.34
810.711	5605.2
810.861	5678.81
811.011	5503.1
811.161	5443.74
811.31	5320.27
811.46	5557.71
811.61	5529.22
811.759	5481.73
811.909	5455.61
812.058	5636.07
812.208	5533.97
812.357	5538.72
812.507	5536.34
812.656	5536.34
812.805	5503.1
812.955	5545.84
813.104	5495.98
813.253	5403.37
813.402	5628.95
813.552	5669.31
813.701	5645.57
813.85	5446.11
813.999	5419.99
814.148	5543.47
814.297	5434.24
814.446	5415.24
814.595	5363.01
814.744	5446.11
814.893	5457.99
815.042	5550.59
815.191	5465.11
815.339	5436.62
815.488	5377.25
815.637	5472.23
815.786	5548.21
815.934	5491.23
816.083	5315.52
816.231	5348.76
816.38	5296.52
816.529	5244.28
816.677	5398.62
816.825	5429.49
816.974	5522.1
817.122	5374.88
817.271	5370.13
817.419	5303.65
817.567	5443.74
817.716	5379.63
817.864	5436.62
818.012	5279.9
818.16	5503.1
818.308	5365.38
818.456	5446.11
818.605	5455.61
818.753	5422.37
818.901	5246.66
819.049	5168.3
819.197	5393.87
819.344	5332.14
819.492	5177.8
819.64	5351.13
819.788	5244.28
819.936	5310.77
820.084	5436.62
820.231	5443.74
820.379	5263.28
820.527	5213.42
820.674	5211.04
820.822	5144.56
820.969	5187.3
821.117	5427.12
821.264	5348.76
821.412	5275.15
821.559	5334.51
821.707	5287.02
821.854	5301.27
822.001	5493.6
822.149	5291.77
822.296	5268.03
822.443	5363.01
822.59	5358.26
822.737	5308.39
822.885	5163.55
823.032	5227.66
823.179	5139.81
823.326	5441.36
823.473	5329.76
823.62	5225.29
823.767	5199.17
823.913	5194.42
824.06	5218.17
824.207	5329.76
824.354	5201.54
824.501	5192.05
824.647	5310.77
824.794	5154.05
824.941	5163.55
825.087	5294.15
825.234	5313.14
825.381	7205.59
825.527	5268.03
825.674	5358.26
825.82	5268.03
825.967	5035.33
826.113	5066.2
826.259	5222.91
826.406	5078.07
826.552	5201.54
826.698	5070.95
826.844	5239.54
826.991	5175.42
827.137	5061.45
827.283	5142.18
827.429	5037.71
827.575	5182.55
827.721	5097.07
827.867	5063.83
828.013	5123.19
828.159	5068.57
828.305	4980.72
828.451	5194.42
828.597	5032.96
828.743	5092.32
828.888	5329.76
829.034	5142.18
829.18	5130.31
829.325	4869.12
829.471	5068.57
829.617	5030.58
829.762	5137.43
829.908	5070.95
830.053	4956.97
830.199	5144.56
830.344	4997.34
830.49	5078.07
830.635	4854.87
830.78	5151.68
830.926	5106.57
831.071	5056.7
831.216	4926.11
831.361	5075.7
831.507	5044.83
831.652	5087.57
831.797	5108.94
831.942	4897.61
832.087	4895.24
832.232	4947.48
832.377	4890.49
832.522	5021.09
832.667	5040.08
832.812	4783.64
832.957	5018.71
833.101	4930.86
833.246	5006.84
833.391	4985.47
833.536	4916.61
833.68	4980.72
833.825	4985.47
833.97	4866.75
834.114	4838.25
834.259	4983.09
834.403	4923.73
834.548	4866.75
834.692	4736.15
834.837	4973.6
834.981	4956.97
835.125	5016.34
835.27	4876.24
835.414	4833.5
835.558	4743.27
835.703	4774.14
835.847	4888.12
835.991	4857.25
836.135	4942.73
836.279	4928.48
836.423	4862
836.567	4959.35
836.711	4786.01
836.855	4878.62
836.999	4869.12
837.143	4745.65
837.287	5037.71
837.431	4869.12
837.574	4890.49
837.718	4847.75
837.862	4983.09
838.006	4833.5
838.149	4833.5
838.293	4869.12
838.437	4800.26
838.58	4816.88
838.724	4790.76
838.867	4947.48
839.011	4885.74
839.154	4774.14
839.297	4762.27
839.441	4835.88
839.584	4873.87
839.727	4980.72
839.871	4949.85
840.014	4769.39
840.157	4705.28
840.3	4843
840.443	4821.63
840.586	4873.87
840.73	4800.26
840.873	4918.98
841.016	4752.77
841.159	4788.39
841.301	4769.39
841.444	4607.93
841.587	4819.26
841.73	4586.56
841.873	4693.41
842.016	4767.02
842.158	4524.82
842.301	4738.52
842.444	4854.87
842.586	4743.27
842.729	4669.67
842.872	4733.78
843.014	4759.89
843.157	4767.02
843.299	4479.71
843.441	4664.92
843.584	4733.78
843.726	4783.64
843.869	4688.66
844.011	4660.17
844.153	4577.06
844.295	4710.03
844.438	4653.04
844.58	4733.78
844.722	4816.88
844.864	4731.4
845.006	4738.52
845.148	4648.3
845.29	4572.31
845.432	4691.04
845.574	4586.56
845.716	4615.05
845.858	4593.68
846	4669.67
846.141	5051.95
846.283	4572.31
846.425	4683.91
846.567	4771.77
846.708	4648.3
846.85	4705.28
846.991	4824.01
847.133	4505.83
847.275	4491.58
847.416	4698.16
847.557	4650.67
847.699	4636.42
847.84	4600.81
847.982	4629.3
848.123	4774.14
848.264	4429.85
848.406	5051.95
848.547	4603.18
848.688	4548.57
848.829	4451.22
848.97	4567.56
849.111	4398.98
849.252	4586.56
849.393	4510.58
849.534	4493.96
849.675	4600.81
849.816	4581.81
849.957	4569.94
850.098	4572.31
850.239	4567.56
850.38	4501.08
850.521	4413.22
850.661	4482.08
850.802	4463.09
850.943	4560.44
851.083	4615.05
851.224	4560.44
851.364	4617.43
851.505	4408.48
851.645	4603.18
851.786	4439.34
851.926	4484.46
852.067	4377.61
852.207	4292.13
852.347	4470.21
852.488	4577.06
852.628	4581.81
852.768	4463.09
852.908	4541.44
853.049	4539.07
853.189	4463.09
853.329	4455.96
853.469	4498.7
853.609	4394.23
853.749	4453.59
853.889	4510.58
854.029	4505.83
854.169	4463.09
854.309	4398.98
854.448	4389.48
854.588	4439.34
854.728	4508.2
854.868	4493.96
855.007	4415.6
855.147	4441.72
855.287	4351.49
855.426	4439.34
855.566	4455.96
855.705	4429.85
855.845	4356.24
855.984	4334.87
856.124	4346.74
856.263	4375.23
856.402	4455.96
856.542	4337.24
856.681	4332.49
856.82	4339.62
856.96	4391.85
857.099	4593.68
857.238	4382.36
857.377	4315.87
857.516	4275.51
857.655	4370.48
857.794	4261.26
857.933	4398.98
858.072	4344.37
858.211	4218.52
858.35	4415.6
858.489	4422.72
858.628	4313.5
858.766	4375.23
858.905	4322.99
859.044	4353.86
859.183	4244.64
859.321	4524.82
859.46	4439.34
859.598	4270.76
859.737	4296.88
859.875	4341.99
860.014	4318.25
860.152	4216.14
860.291	4384.73
860.429	4292.13
860.568	4244.64
860.706	4249.39
860.844	4190.03
860.982	4299.25
861.121	4232.77
861.259	4417.97
861.397	4270.76
861.535	4213.77
861.673	4130.66
861.811	4242.26
861.949	4273.13
862.087	4254.14
862.225	4190.03
862.363	4209.02
862.501	4144.91
862.639	4358.61
862.777	4152.03
862.914	4261.26
863.052	4097.42
863.19	4175.78
863.327	4182.9
863.465	4206.65
863.603	4273.13
863.74	4223.27
863.878	4057.06
864.015	4209.02
864.153	4019.06
864.29	4339.62
864.428	4090.3
864.565	4097.42
864.702	4182.9
864.84	4052.31
864.977	4099.8
865.114	4111.67
865.251	4223.27
865.389	4035.69
865.526	4102.17
865.663	4185.28
865.8	4111.67
865.937	4251.76
866.074	3985.82
866.211	4168.66
866.348	4216.14
866.485	4275.51
866.622	4104.54
866.758	4099.8
866.895	4085.55
867.032	3978.7
867.169	4163.91
867.305	4028.56
867.442	4049.93
867.579	4230.39
867.715	3954.95
867.852	4014.32
867.988	4206.65
868.125	3943.08
